# Index Frequency(Hz) Peak(arb) RMS(arb) Gamma(Hz) Bkg(arb)
1 416.84 550.034 1029.46 137.07 844.212
2 18132.6 54.2702 149.196 12859.8 153.021
3 30220.9 3011.3 2237.98 106.048 150.199
4 43351.4 163.771 219.787 163.416 147.572
5 60233.4 617.312 663.373 135.775 151.309
6 61900.8 55.8184 153.272 113.211 152.173
7 64193.4 275.028 318.163 175.912 153.361
8 65235.5 1450.91 1313.22 255.105 153.9
9 68153.4 95.2181 213.397 5426.11 155.409
10 70654.4 1676.33 1792.74 657.465 156.7
11 80867 53.5784 162.012 181.095 161.948
12 86286 126.542 306 153.851 164.712
13 88370.2 72.2619 196.597 9731.62 165.77
14 90245.9 427.027 526.292 128.635 166.72
15 90662.8 277.188 445.855 4342.61 166.931
16 91913.3 1423.53 1813.1 348.03 167.563
17 92747 7333.69 8700.17 168.621 167.983
18 93580.7 949.465 1277.32 267.153 168.403
19 94205.9 798.522 1117.45 1872.48 168.718
20 95664.9 168.112 318.209 396.985 169.451
21 96498.5 111.219 246.382 1340.67 169.869
22 97749.1 96.7577 221.072 1411.28 170.495
23 98791.2 335.815 382.795 111.401 171.016
24 103793 114.003 221.033 342.625 173.501
25 120258 334.151 476.608 117.38 181.492
26 122343 226.966 424.335 132.245 182.478
27 127553 105.894 237.783 465.576 184.915
28 129429 231.066 480.623 176.081 185.782
29 130679 89.7543 215.553 322.155 186.357
30 131722 103.332 232.761 292.802 186.833
31 132555 70.5133 199.093 486.892 187.213
32 133180 103.133 234.337 288.134 187.497
33 133597 81.179 211.114 260.063 187.686
34 134431 95.8376 228.833 215.315 188.063
35 134848 104.221 237.483 109.119 188.252
36 135473 86.2008 222.738 175.362 188.533
37 135890 126.132 264.306 107.208 188.72
38 136307 153.937 288.416 133.109 188.907
39 137140 109.189 259.724 195.72 189.28
40 137557 145.105 296.109 118.866 189.466
41 138391 137.151 301.252 190.686 189.837
42 139016 186.666 387.658 4166.43 190.114
43 140684 3172.08 2986.68 123.336 190.849
44 141100 2245.94 2161.86 182.563 191.032
45 142768 181.804 383.686 4138.9 191.76
46 145686 58.9076 208.31 12251.7 193.019
47 150271 309.682 477.283 116.446 194.959
48 161317 592.234 818.909 149.8 199.417
49 162359 195.593 381.022 146.108 199.821
50 163193 212.839 478.379 1013.55 200.141
51 164444 178.089 430.174 2168.51 200.619
52 166111 170.168 415.357 625.069 201.248
53 167361 126.534 335.782 3327.73 201.714
54 172572 143.901 432.654 242.479 203.605
55 180283 362.576 563.077 176.467 206.241
56 180700 415.265 780.52 147.322 206.377
57 183618 215.593 488.752 515.993 207.317
58 185077 233.542 513.622 461.754 207.775
59 186536 242.939 527.541 6187.49 208.226
60 187995 256.727 555.975 324.666 208.668
61 189246 230.176 510.604 1271.97 209.041
62 191330 211.219 474.8 2574.04 209.649
63 192163 175.041 416.491 6128.23 209.888
64 194248 150.944 365.121 8300.18 210.472
65 197374 418.018 692.922 171.419 211.316
66 199041 100.133 314.328 124.003 211.75
67 203835 283.69 558.694 136.242 212.934
68 205294 120.629 370.693 4279.13 213.275
69 207170 239.553 504.224 967.241 213.701
70 207795 247.319 562.463 894.758 213.839
71 209045 187.665 518.802 2849.06 214.11
72 210296 384.364 611.857 156.546 214.375
73 211546 391.552 827.052 416.24 214.633
74 212797 162.407 449.925 295.324 214.884
75 214256 385.164 613.347 176.847 215.168
76 215506 415.433 784.28 180.861 215.404
77 216340 213.528 567.251 2715.96 215.557
78 229679 543.118 1096.82 2024.94 217.573
79 230930 582.478 1198.96 1986.3 217.72
80 232388 311.276 753.656 5185.02 217.881
81 234681 242.932 605.451 6590.66 218.114
82 235723 1208.77 1866.28 160.843 218.212
83 237391 544.031 1080.43 420.961 218.357
84 239058 2139.33 3072.62 117.449 218.489
85 240308 483.747 746.9 166.95 218.579
86 240934 376.744 776.185 414.257 218.621
87 241976 206.078 496.668 271.056 218.688
88 243435 248.14 390.043 293.154 218.772
89 244477 815.325 1420.54 258.285 218.825
90 250521 179.347 450.034 4459.55 219.034
91 251772 233.94 532.545 2132.63 219.055
92 252605 310.576 667.728 929.184 219.065
93 253231 309.856 664.862 1929.15 219.07
94 258024 782.708 1332.85 1133.36 219.047
95 258649 817.488 1234.46 1410.55 219.036
96 263026 205.249 479.138 1371.25 218.907
97 270321 379.692 562.565 199.721 218.491
98 280117 173.744 402.603 159.912 217.545
99 281159 1891.06 1906.95 160.961 217.419
100 282201 2051.55 2015.85 194.558 217.288
101 285119 159.449 340.916 286.962 216.897
102 291163 343.835 500.199 316.795 215.968
103 298458 129.932 331.279 3529.73 214.644
104 300333 436.501 625.489 263.453 214.269
105 301167 249.885 489.927 298.827 214.098
106 301792 218.802 492.483 2827.34 213.968
107 304710 97.824 303.038 832.676 213.34
108 306586 153.762 364.953 540.608 212.919
109 308253 129.154 323.678 491.264 212.534
110 310546 118.555 282.625 4569.55 211.988
111 320133 73.2997 232.683 3903.08 209.501
112 322218 255.5 353.027 313.516 208.919
113 323260 111.782 273.874 404.904 208.623
114 325969 173.195 293.255 105.934 207.836
115 328470 76.2869 228.406 517.992 207.09
116 330346 433.479 628.017 306.528 206.517
117 344727 134.028 548.7 124.785 201.796
118 353481 45.9116 182.586 182.567 198.661
119 360358 491.889 699.105 335.832 196.078
120 361192 94.8296 229.147 1490.76 195.758
121 363068 73.9931 201.622 207.258 195.034
122 366611 190.926 278.31 145.547 193.646
123 374323 56.2173 185.819 115.021 190.55
124 387870 161.462 527.779 118.231 184.883
125 390163 164.251 258.259 300.818 183.899
126 403085 138.38 218.709 106.671 178.241
127 404127 73.1935 201.338 333.738 177.777
128 406628 143.666 279.799 290.329 176.66
129 415798 43.1871 159.617 287.964 172.517
130 416840 52.8695 167.108 111.867 172.042
131 420175 152.49 225.808 323.354 170.517
132 421217 410.738 497.915 790.096 170.039
133 421634 809.682 883.01 274.662 169.848
134 422468 248.781 331.575 107.202 169.464
135 423093 572.547 639.495 130.211 169.177
136 424760 299.916 354.91 425.013 168.408
137 425177 111.272 211.554 1137.62 168.216
138 427053 402.063 492.973 161.881 167.349
139 429346 124.192 199.547 155.685 166.286
140 431013 80.5781 327.589 315.724 165.512
141 431638 50.5899 154.964 120.2 165.221
142 438516 65.1831 169.844 346.201 162.01
143 447270 400.198 352.915 119.684 157.894
144 448103 108.217 194.604 109.186 157.5
145 450188 127.627 207.499 187.296 156.515
146 456232 89.4985 180.457 254.098 153.653
147 465194 338.452 308.596 118.309 149.396
148 473947 133.781 403.133 179.929 145.291
149 477907 255.072 251.714 132.447 143.471
150 480200 73.2149 159.927 157.374 142.421
151 481451 141.938 245.744 511.657 141.849
152 483326 88.9146 161.027 322.743 140.991
153 486453 333.495 396.427 113.027 139.568
154 488745 113.145 180.886 124.879 138.535
155 517090 112.27 343.069 130.464 126.85
156 529596 118.911 168.392 220.768 122.161
157 541684 57.2528 137.403 507.155 117.72
158 542101 47.819 137.056 776.983 117.568
159 560025 55.8735 203.21 353.761 111.12
160 562318 956.628 1083.28 320.619 110.309
161 563985 839.255 903.713 235.037 109.72
162 570238 358.49 315.255 106.521 107.513
163 582326 101.724 142.845 109.717 103.27
164 601917 42.1198 109.36 479.544 96.8764
165 603168 65.902 234.517 110.979 96.5414
166 610880 57.7356 99.7579 141.097 94.4839
167 646311 78.2272 206.712 125.223 86.078
168 665277 115.511 142.327 156.982 82.1909
169 667778 41.1643 123.551 107.016 81.6962
170 689246 92.2749 221.034 287.627 77.6958
171 692372 41.2873 71.7442 106.734 77.216
172 702793 429.218 431.563 211.354 75.6451
173 705085 354.939 411.071 215.272 75.3124
174 729679 159.679 178.454 246.352 71.9352
175 732388 138.237 268.45 106.237 71.5865
176 759066 212.44 256.208 248.12 68.8622
177 766986 270.032 327.084 302.56 68.2758
178 768237 457.834 482.832 224.713 68.1834
179 775531 123.06 212.35 134.482 67.6451
180 779075 162.832 225.204 354.927 67.3845
181 782201 120.743 173.801 308.754 67.1548
182 784285 236.168 288.962 634.178 67.0017
183 784702 189.872 243.42 736.053 66.9712
184 789079 413.17 477.097 300.795 66.6522
185 791163 278.724 336.577 314.553 66.5005
186 795123 256.06 303.584 368.513 66.2137
187 818466 121.379 211.47 232.939 64.613
188 861609 152.658 252.487 105.14 62.1682
189 873281 81.6824 91.8015 297.573 61.6368
190 904752 80.1105 144.404 149.648 60.6251
191 947687 49.6753 99.5411 170.582 59.7339
192 986870 60.0089 82.7356 339.254 59.4235
193 990830 47.2782 94.5012 104.711 59.3913
